time (s)	energy (uJ)	charge (mC)	voltage (mV)	crossing#mod 255
1352.359096	139.550613	0.025446	5.484099	236
1353.418133	137.132080	0.025436	5.391220	237
1354.451587	139.842468	0.025457	5.493312	238
1355.507350	138.136276	0.025450	5.427747	239
1356.542857	135.397049	0.025450	5.320127	240
1357.597899	136.428802	0.025524	5.345138	241
1358.632957	137.258911	0.025437	5.396026	242
1359.691003	139.692551	0.025431	5.493099	243
1360.725151	129.728363	0.025422	5.102982	244
1361.783139	128.507309	0.025423	5.054820	245
1362.814777	165.700714	0.025417	6.519382	246
1363.873035	129.603867	0.025428	5.096953	247
1364.905513	131.657288	0.025434	5.176494	248
1365.962912	131.630341	0.025435	5.175192	249
1366.997631	129.440079	0.025442	5.087679	250
1368.053415	139.124863	0.025416	5.474008	251
1369.089102	129.150406	0.025408	5.083152	252
1370.145446	127.576225	0.025408	5.021018	253
1371.179941	123.011246	0.025439	4.835461	254
1372.248724	99.076797	0.025420	3.897646	255
1373.272803	124.717812	0.025411	4.908086	0
1374.324754	131.404922	0.025405	5.172451	1
1375.397096	53.943306	0.025367	2.126504	2
1376.416501	123.968513	0.025422	4.876399	3
1377.454523	114.998497	0.025413	4.525248	4
1378.507797	123.408165	0.025418	4.855192	5
1379.544739	118.596008	0.025435	4.662800	6
1380.598651	121.460960	0.025382	4.785271	7
1381.636124	115.454910	0.025407	4.544244	8
1382.688951	127.154419	0.025396	5.006958	9
1383.726816	118.011032	0.025426	4.641356	10
1384.779132	125.871323	0.025393	4.956897	11
1385.820421	110.856163	0.025348	4.373429	12
1386.870367	119.166595	0.025407	4.690252	13
1387.908889	113.723190	0.025419	4.473936	14
1388.960769	121.538704	0.025361	4.792367	15
1389.999284	114.571274	0.025431	4.505215	16
1391.052866	123.810890	0.025371	4.880051	17
1392.089697	112.892044	0.025424	4.440297	18
1393.143675	114.530357	0.025425	4.504603	19
1394.181519	110.920250	0.025401	4.366792	20
1395.233905	117.967178	0.025424	4.639997	21
1396.271917	110.167015	0.025417	4.334448	22
1397.325622	112.155357	0.025394	4.416528	23
1398.363655	108.686813	0.025386	4.281332	24
1399.417434	101.183563	0.025385	3.985896	25
1400.452066	111.404648	0.025416	4.383263	26
1401.508753	109.129868	0.025392	4.297833	27
1402.544944	102.083282	0.025375	4.022988	28
1403.599829	109.390976	0.025381	4.310027	29
1404.634292	104.375664	0.025388	4.111263	30
1405.689639	108.264183	0.025374	4.266810	31
1406.724621	102.562614	0.025422	4.034483	32
1407.780453	109.504639	0.025377	4.315137	33
1408.815687	107.702545	0.025376	4.244289	34
1409.871756	107.352577	0.025380	4.229777	35
1410.905611	100.409485	0.025387	3.955199	36
1411.963403	105.939117	0.025381	4.173988	37
1412.996806	99.845490	0.025354	3.938002	38
1414.055447	103.043907	0.025379	4.060214	39
1415.088528	98.992836	0.025411	3.895682	40
1416.144573	102.464264	0.025413	4.031986	41
1417.179040	100.548553	0.025380	3.961690	42
1418.233533	102.842003	0.025407	4.047758	43
1419.270172	97.282867	0.025362	3.835845	44
1420.324318	104.768623	0.025373	4.129094	45
1421.361530	98.349915	0.025371	3.876535	46
1422.414720	106.297195	0.025406	4.184014	47
1423.451688	98.268410	0.025384	3.871327	48
1424.504774	103.311295	0.025379	4.070738	49
1425.542602	96.944588	0.025396	3.817303	50
1426.595972	103.447952	0.025381	4.075809	51
1427.634176	94.400421	0.025359	3.722520	52
1428.686420	99.111671	0.025375	3.905852	53
1429.725731	91.943680	0.025382	3.622458	54
1430.777170	100.287498	0.025391	3.949660	55
1431.815057	93.884872	0.025373	3.700160	56
1432.867305	98.278702	0.025376	3.872916	57
1433.905912	90.277283	0.025385	3.556273	58
1434.959004	97.692352	0.025397	3.846605	59
1435.996595	90.529633	0.025389	3.565685	60
1437.048208	101.337952	0.025357	3.996468	61
1438.088000	89.161263	0.025358	3.516168	62
1439.140012	96.357414	0.025397	3.793990	63
1440.177266	90.520363	0.025311	3.576283	64
1441.230821	97.539948	0.025369	3.844827	65
1442.269886	85.233711	0.025367	3.360070	66
1443.322671	95.295715	0.025375	3.755447	67
1444.358246	75.774376	0.025335	2.990852	68
1445.411742	96.175812	0.025336	3.796026	69
1446.448448	86.637527	0.025392	3.411934	70
1447.504118	90.058090	0.025365	3.550433	71
1448.539249	76.858681	0.025361	3.030615	72
1449.595526	88.029091	0.025366	3.470342	73
1450.630871	87.206581	0.025363	3.438354	74
1451.684559	94.375214	0.025314	3.728125	75
1452.720547	88.474174	0.025366	3.487839	76
1453.775022	95.525932	0.025382	3.763534	77
1454.810707	84.451530	0.025382	3.327263	78
1455.866495	93.560249	0.025351	3.690564	79
1456.901344	86.414925	0.025348	3.409161	80
1457.956948	88.870651	0.025372	3.502651	81
1458.992749	83.233772	0.025351	3.283203	82
1460.048532	87.054871	0.025361	3.432671	83
1461.083335	84.798500	0.025358	3.344032	84
1462.137636	92.064484	0.025381	3.627270	85
1463.174751	78.748657	0.025373	3.103642	86
1464.229150	87.966797	0.025355	3.469447	87
1465.264799	80.848274	0.025362	3.187753	88
1466.319528	74.788010	0.025357	2.949348	89
1467.355568	77.816025	0.025353	3.069259	90
1468.410957	86.346306	0.025332	3.408572	91
1469.446322	81.500381	0.025385	3.210609	92
1470.501358	87.525726	0.025390	3.447216	93
1471.537352	79.958916	0.025340	3.155421	94
1472.591328	86.365448	0.025344	3.407733	95
1473.626358	80.508194	0.025378	3.172310	96
1474.680804	91.362099	0.025342	3.605222	97
1475.718292	81.620445	0.025301	3.226030	98
1476.771831	82.987793	0.025347	3.274031	99
1477.809971	76.541458	0.025339	3.020739	100
1478.863597	83.682800	0.025356	3.300260	101
1479.900604	75.077766	0.025362	2.960273	102
1480.953560	87.771210	0.025380	3.458302	103
1481.991354	74.495979	0.025376	2.935702	104
1483.044211	81.439438	0.025347	3.213018	105
1484.081732	77.209122	0.025321	3.049268	106
1485.134325	84.410500	0.025353	3.329440	107
1486.211974	20.004597	0.025386	0.788010	108
